#"+EI Scan (rt: 1.696-1.737 min, 8 scans) MIX8-6.D  Subtract "
#Point,X(Thompsons),Y(Counts)
41.0 7070.4375
42.0 1500.12780761719
43.0 1247.21044921875
44.0 1578.611328125
45.0 109.902671813965
50.0 1218.44250488281
51.0 4455.93505859375
52.0 527.707397460938
53.0 214.853454589844
54.0 520.779846191406
55.0 576.964965820313
56.0 4226.46142578125
57.0 486.138977050781
58.1 11781.3486328125
59.0 461.658477783203
62.0 80.1857833862305
63.0 292.044952392578
65.0 185.404830932617
66.9 106.432495117188
67.9 20.8673286437988
68.0 303.337036132813
69.0 250.134475708008
70.0 1712.7783203125
71.0 544.654052734375
73.0 98.6462860107422
74.0 309.833648681641
75.0 345.54638671875
76.0 585.816650390625
77.0 10341.91796875
78.0 1153.7021484375
79.0 727.336364746094
82.0 19.2237415313721
84.1 2355.31567382813
85.0 36.7940521240234
85.1 558.182434082031
86.1 92299.15625
87.1 5616.556640625
88.0 130.889221191406
88.1 21.4527072906494
89.0 252.792938232422
89.9 21.0192756652832
90.0 67.9639511108398
91.0 830.93115234375
92.0 67.7313919067383
95.9 48.3047409057617
102.0 88.0769729614258
103.0 255.075073242188
104.0 288.522369384766
105.0 4811.6572265625
106.0 758.158630371094
107.0 61.8664016723633
115.0 370.335540771484
116.0 153.919998168945
116.9 85.4918365478516
117.0 284.966552734375
118.0 348.648193359375
127.0 40.4675827026367
128.0 108.111793518066
129.0 20.1211833953857
130.0 75.9536972045898
130.9 20.8314609527588
131.0 87.6852340698242
132.0 197.938827514648
133.0 300.345947265625
134.0 1440.45495605469
135.0 200.993057250977
144.0 75.9650573730469
146.0 271.44384765625
146.0 137.709243774414
147.0 212.236953735352
148.0 218.664199829102
148.9 73.4749526977539
159.9 19.1000957489014
162.1 1261.916015625
163.0 150.755950927734
190.9 135.331008911133
207.9 99.3933563232422
209.0 103.423271179199
