#"+EI Scan (rt: 2.034-2.086 min, 10 scans) MIX1-2.D  Subtract "
#Point,X(Thompsons),Y(Counts)
41.0 400.387481689453
42.0 3455.76611328125
43.0 549.044189453125
44.0 12287.7802734375
44.9 20.8515129089355
45.0 404.094543457031
50.0 1046.68041992188
51.0 654.297668457031
52.0 92.1040878295898
53.0 87.2692031860352
54.0 136.808868408203
55.0 335.014709472656
56.0 2310.73999023438
57.0 379.517730712891
58.0 844.044799804688
61.0 43.7283935546875
62.0 16.9629459381104
63.0 157.234222412109
64.9 66.2559967041016
67.9 73.4235763549805
69.0 31.1302700042725
70.0 2832.19189453125
70.9 16.286283493042
71.1 385.377777099609
72.1 33855.23828125
73.1 1877.08752441406
73.9 20.2380867004395
74.0 559.218383789063
75.0 2554.82373046875
76.0 640.855224609375
77.0 754.409851074219
78.0 122.544372558594
79.0 155.698883056641
84.0 38.9559593200684
84.9 295.441436767578
85.9 15.7442684173584
86.9 104.183738708496
89.0 212.457733154297
91.0 221.886535644531
95.8 15.2899875640869
96.0 39.162654876709
100.9 15.5598859786987
102.0 82.7220764160156
102.9 48.8648376464844
103.0 363.0615234375
104.0 102.460556030273
105.0 224.621063232422
110.0 16.6312599182129
111.0 3318.20971679688
111.9 323.103424072266
113.0 1140.77844238281
113.9 118.272972106934
115.0 197.989685058594
116.0 32.9529724121094
117.0 69.8654937744141
118.9 33.1430358886719
119.0 17.4975357055664
124.9 279.657958984375
126.9 72.7646255493164
131.0 216.169830322266
132.0 16.3464698791504
133.0 429.910217285156
138.0 42.315673828125
139.0 2018.83264160156
139.9 215.560638427734
140.9 691.094055175781
141.9 34.2431488037109
147.0 15.5835189819336
161.0 37.0774841308594
165.9 64.4508285522461
166.9 18.0414619445801
168.0 254.717559814453
169.9 40.8800735473633
186.1 21.5789680480957
191.0 37.1511268615723
196.0 16.0353202819824
207.0 88.4304809570313
208.0 76.0093765258789
