#"+EI Scan (rt: 3.754-3.800 min, 9 scans) MIX1-8.D  Subtract "
#Point,X(Thompsons),Y(Counts)
41.0 762.995910644531
42.0 2894.94604492188
43.0 822.26025390625
44.0 7362.68017578125
45.0 209.625823974609
49.9 189.544509887695
51.0 357.573822021484
52.0 63.9843330383301
53.0 381.857147216797
54.0 138.106018066406
54.1 19.5649852752686
55.0 1127.54040527344
56.0 1413.99951171875
57.0 1778.87829589844
58.0 1150.55322265625
61.0 42.1440696716309
62.0 559.903930664063
63.0 1853.62084960938
64.0 253.434783935547
65.0 2438.00952148438
65.9 66.9919967651367
66.0 98.6683883666992
66.9 19.581506729126
68.0 161.841354370117
68.9 20.2438926696777
69.0 36.9176902770996
70.0 712.847045898438
71.0 204.972610473633
74.0 96.5563735961914
74.8 17.2589778900146
75.9 40.2081298828125
76.1 16.9765090942383
77.0 260.835571289063
77.9 19.7413711547852
79.0 130.05046081543
83.0 18.1913738250732
84.1 2841.55786132813
85.1 355.721252441406
86.1 40952.515625
87.1 2373.14575195313
88.0 17.6106147766113
88.1 34.5599517822266
88.9 41.476936340332
89.0 36.4848823547363
91.0 991.66455078125
91.9 169.028411865234
93.0 84.907470703125
95.3 20.4308280944824
95.6 59.4597587585449
95.7 94.5257186889648
95.9 55.8994255065918
96.0 18.1589412689209
105.0 55.5027923583984
115.0 18.460786819458
117.0 22.7596206665039
119.0 262.708374023438
120.0 178.953704833984
121.0 2369.52197265625
122.0 337.783172607422
132.9 77.0166397094727
133.9 81.4471130371094
135.0 429.064300537109
147.0 119.04647064209
147.9 37.996955871582
148.0 18.3852615356445
149.0 3148.7890625
150.0 334.071166992188
162.0 337.428497314453
163.0 17.5909862518311
164.0 727.566711425781
165.0 17.3843479156494
177.0 18.9345970153809
187.9 19.1243839263916
190.0 17.8090324401855
192.0 286.784240722656
193.0 19.9181537628174
207.0 28.8310546875
208.0 72.54541015625
