#"+EI Scan (rt: 3.748-3.794 min, 9 scans) MIX1-1b.D  Subtract "
#Point,X(Thompsons),Y(Counts)
41.0 739.067565917969
42.0 2777.93579101563
43.0 820.616271972656
44.0 6905.34521484375
45.0 200.599914550781
49.9 181.204818725586
50.9 99.2214965820313
51.0 226.928985595703
51.9 18.4508190155029
53.0 337.590087890625
54.0 165.464172363281
55.0 1099.55517578125
56.0 1293.1396484375
57.0 1652.24694824219
58.0 1061.85766601563
60.9 18.6177597045898
61.0 36.0627250671387
62.0 531.834533691406
63.0 1732.59387207031
64.0 258.741027832031
65.0 2325.18212890625
66.0 158.958053588867
68.0 104.755432128906
68.1 22.0318546295166
68.9 20.1614971160889
70.0 728.205139160156
71.0 208.484527587891
73.9 57.3799171447754
74.8 23.5463047027588
76.0 22.8026008605957
77.0 265.086120605469
77.9 41.1099319458008
78.9 128.084457397461
84.1 2612.46166992188
85.0 168.102081298828
85.1 157.515762329102
86.1 37897.0703125
87.1 2290.08666992188
88.0 17.9274444580078
88.9 20.3174667358398
89.0 45.2589569091797
91.0 891.670043945313
92.0 113.32844543457
92.9 27.1297626495361
93.0 22.4704818725586
95.4 120.198379516602
95.6 31.3467025756836
95.8 42.293872833252
103.0 23.499382019043
105.0 38.9528121948242
115.0 35.6587791442871
116.9 17.6609592437744
119.0 232.821884155273
119.9 93.0414962768555
120.0 73.7869491577148
121.0 2146.94580078125
122.0 265.7353515625
130.9 17.7713642120361
132.9 13.5171642303467
133.9 66.3368606567383
135.0 384.116424560547
146.9 126.520126342773
148.0 59.2719802856445
149.0 2950.63427734375
150.0 288.967956542969
161.9 26.6389541625977
162.0 284.346343994141
162.9 17.9159870147705
164.0 623.734130859375
177.0 17.383768081665
191.0 18.592643737793
192.0 292.208770751953
192.9 17.3372325897217
207.0 61.0159912109375
