#"+EI Scan (rt: 3.754-3.800 min, 9 scans) MIX1-6.D  Subtract "
#Point,X(Thompsons),Y(Counts)
41.0 763.083435058594
42.0 2964.92260742188
43.0 862.972778320313
44.0 7731.67529296875
45.0 177.279632568359
50.0 186.225006103516
51.0 371.587310791016
52.0 83.3703079223633
53.0 385.361145019531
54.0 196.628311157227
55.0 1193.83374023438
56.0 1420.19116210938
57.0 1820.39807128906
58.0 1203.24780273438
61.0 21.1760406494141
62.0 549.86572265625
63.0 1860.076171875
64.0 303.852325439453
65.0 2524.1923828125
66.0 171.419296264648
66.9 34.6886863708496
68.0 181.788986206055
68.9 29.1884994506836
69.1 20.1803112030029
70.0 782.056701660156
71.0 274.369689941406
73.8 17.4059467315674
74.0 45.4180145263672
74.1 23.2506351470947
76.0 52.6110382080078
77.0 273.122039794922
78.0 41.7741432189941
78.9 30.1212329864502
79.0 95.7773284912109
82.9 18.8028602600098
84.1 2808.25244140625
85.1 335.355346679688
86.1 42346.234375
87.1 2497.92822265625
88.0 41.8331489562988
88.9 62.3674583435059
89.0 17.4816837310791
91.0 961.694213867188
91.9 171.619781494141
93.0 62.613410949707
95.3 18.1123657226563
95.5 188.331512451172
95.8 26.0273971557617
102.9 19.2538414001465
105.0 45.9969291687012
114.9 18.4988708496094
116.9 17.6338005065918
118.9 22.6579113006592
119.0 270.376190185547
119.9 30.4604415893555
120.0 147.259094238281
121.0 2353.0390625
121.9 314.579559326172
133.0 31.4114608764648
133.9 72.9411926269531
134.8 19.368293762207
135.0 409.645629882813
146.0 16.7672653198242
146.9 47.7793998718262
147.0 74.1443557739258
147.9 36.5059013366699
149.0 3174.97607421875
150.0 359.249816894531
162.0 371.5634765625
164.0 740.728332519531
176.9 39.3215599060059
188.0 19.4117965698242
190.9 17.3417282104492
192.0 334.788696289063
193.0 38.8648338317871
207.0 39.0237426757813
