#"+EI Scan (rt: 1.889-1.988 min, 18 scans) MIX3-4.D  Subtract "
#Point,X(Thompsons),Y(Counts)
41.0 288.069519042969
41.9 11.2709617614746
42.0 631.153442382813
43.0 194.178298950195
44.0 208.237915039063
49.8 11.7346134185791
50.0 208.878341674805
51.0 168.815582275391
51.9 11.0864124298096
53.0 18.2467727661133
53.9 21.9562339782715
55.0 47.1353607177734
56.0 467.301544189453
57.0 768.990234375
58.0 718.59912109375
61.9 57.7637786865234
62.1 13.7838888168335
63.0 359.904663085938
63.9 18.5526504516602
65.0 743.287536621094
69.0 17.1877212524414
70.0 583.362060546875
71.0 180.183059692383
72.1 9577.46875
73.0 544.645263671875
73.9 10.6072053909302
75.0 159.17219543457
76.0 9.81019306182861
77.0 233.672302246094
79.0 8.78874206542969
89.0 163.745376586914
90.0 61.3925361633301
91.0 892.532958984375
92.0 61.0310821533203
104.9 64.4053955078125
105.0 45.3918533325195
110.9 156.671127319336
112.8 11.1902055740356
113.0 9.28291606903076
114.9 49.2139129638672
119.0 529.535278320313
119.9 9.76629257202148
120.0 30.3902378082275
120.9 415.537292480469
132.0 9.32484531402588
133.0 18.1633338928223
134.0 104.102088928223
134.9 44.4630508422852
135.0 85.189208984375
136.0 46.4112701416016
136.1 12.1417579650879
138.9 133.478485107422
147.0 64.6116561889648
149.0 1242.85803222656
149.9 104.576080322266
162.0 116.942939758301
190.9 10.7765617370605
192.0 42.0116920471191
208.0 50.7992706298828
