#"+EI Scan (rt: 1.819-1.865 min, 9 scans) MIX6-7.D  Subtract "
#Point,X(Thompsons),Y(Counts)
41.0 3497.23876953125
42.0 4868.1787109375
43.0 717.149047851563
44.0 3337.2890625
45.0 135.222061157227
50.0 456.273040771484
51.0 942.991088867188
52.0 234.211242675781
52.0 147.907669067383
53.0 254.040878295898
54.0 411.520172119141
55.0 545.659118652344
56.0 3223.82739257813
57.0 7993.6787109375
58.0 381.661743164063
60.9 17.9087181091309
62.0 384.056304931641
63.0 1563.02136230469
63.9 29.1883945465088
64.0 472.041931152344
65.0 5477.72412109375
66.0 346.230285644531
66.9 16.753002166748
67.0 17.2442893981934
68.0 271.692962646484
69.0 268.788787841797
70.0 4151.8603515625
71.1 1157.71337890625
72.1 96537.125
73.1 4905.4501953125
74.0 244.600646972656
75.0 190.338027954102
75.9 26.0179424285889
76.0 90.1081771850586
77.0 681.105224609375
78.0 240.116394042969
79.0 37.9262847900391
79.1 149.353759765625
79.9 17.670970916748
80.0 76.1884536743164
80.5 20.6936111450195
81.1 20.0276966094971
86.0 75.9054412841797
87.0 48.7962913513184
89.0 1807.56481933594
90.0 820.809692382813
91.0 9012.95703125
91.9 25.8768157958984
92.0 911.193359375
93.0 118.893173217773
101.9 55.7136573791504
103.0 280.188171386719
104.0 43.9956207275391
105.0 635.750366210938
115.0 341.815093994141
115.0 131.454406738281
116.0 153.947647094727
117.0 338.5771484375
118.0 228.11946105957
119.0 3660.78271484375
120.0 455.699554443359
121.0 246.968780517578
121.9 18.6715774536133
122.0 35.1735763549805
127.0 43.9279174804688
128.0 168.804626464844
129.0 101.068710327148
130.0 89.6976776123047
131.0 183.589736938477
132.0 268.079711914063
132.9 181.707870483398
134.0 1184.57104492188
135.0 194.157196044922
144.0 172.793411254883
144.9 18.985933303833
145.0 187.148529052734
146.0 176.422805786133
146.9 27.4932174682617
147.0 802.609313964844
148.0 119.597007751465
158.0 58.4914283752441
160.0 229.547058105469
161.0 159.358688354492
162.1 1773.39099121094
163.0 228.610382080078
190.9 56.3124923706055
191.0 60.3663330078125
207.0 91.426513671875
208.0 13.105712890625
208.1 23.1209526062012
209.0 0.57232666015625
