#"+EI Scan (rt: 2.279-2.326 min, 9 scans) MIX7-8.D  Subtract "
#Point,X(Thompsons),Y(Counts)
41.0 1802.00830078125
42.0 753.486328125
43.0 1105.25024414063
44.0 1903.19982910156
45.0 82.4779357910156
46.0 106.464225769043
50.0 379.067657470703
51.0 1494.4609375
52.0 188.720153808594
53.0 121.790008544922
53.9 26.998197555542
54.0 182.928588867188
55.0 525.67919921875
56.0 2393.2939453125
57.0 525.970336914063
58.0 5925.91845703125
59.0 181.783752441406
63.0 82.5651397705078
65.0 81.5199813842773
67.0 204.481979370117
68.0 124.576522827148
68.0 75.323371887207
69.0 1030.84521484375
70.0 812.46728515625
71.0 693.0859375
72.1 760.711364746094
73.0 41.3306198120117
73.9 21.4320430755615
75.0 95.4105072021484
76.0 197.033554077148
77.0 4531.90234375
78.0 530.291870117188
79.0 395.889556884766
82.0 107.049911499023
84.0 835.273803710938
85.0 138.326873779297
86.0 94.2835159301758
89.0 80.6709060668945
90.9 31.9242458343506
91.0 537.164855957031
96.0 75.0155487060547
98.0 89.2193298339844
103.0 165.191314697266
103.1 20.6289520263672
104.0 124.749008178711
104.1 27.2258605957031
105.0 2689.12670898438
106.0 443.3349609375
112.1 1266.65563964844
113.1 249.112976074219
114.1 48103.33203125
115.1 4285.24853515625
116.0 249.536682128906
117.0 132.977462768555
118.0 121.385040283203
119.0 36.7016334533691
119.9 124.487266540527
121.9 17.3101654052734
128.0 18.7359294891357
130.0 47.6975631713867
132.0 97.5571441650391
132.1 54.2587890625
133.0 282.826782226563
134.0 1088.03173828125
135.0 141.130935668945
145.9 21.5917568206787
146.0 73.1178665161133
148.0 36.9958915710449
160.9 19.2474040985107
162.0 552.574096679688
163.0 91.8632659912109
190.9 50.3848266601563
207.0 88.9259033203125
208.0 23.5198059082031
208.9 59.3297004699707
281.0 0.389644622802734
