#"+EI Scan (rt: 3.369-3.410 min, 8 scans) DIBUTYLONE-3.D  Subtract "
#Point,X(Thompsons),Y(Counts)
41.0 1884.30322265625
42.1 7451.06103515625
43.0 1863.61596679688
44.0 3438.06640625
45.0 463.057739257813
45.9 19.7987041473389
46.0 19.3854541778564
50.0 458.42236328125
51.0 829.945495605469
51.9 170.823501586914
53.0 784.545593261719
54.0 277.989440917969
55.0 926.369934082031
56.0 4119.1298828125
57.0 424.888763427734
58.0 1684.88012695313
60.9 19.3917846679688
61.0 203.850784301758
62.0 1413.88720703125
63.0 4526.21728515625
64.0 663.390197753906
65.0 5718.248046875
66.0 517.364379882813
67.0 115.257301330566
68.0 670.421020507813
69.0 707.560302734375
70.1 3449.05883789063
71.1 13439.2353515625
72.0 880.359436035156
73.2 19.2484931945801
73.9 251.169586181641
74.0 78.7602462768555
75.0 178.210632324219
76.0 205.985229492188
77.0 770.452087402344
78.0 223.429397583008
79.0 421.522674560547
80.0 21.981990814209
81.9 23.0643711090088
82.0 87.8510589599609
84.1 3446.69799804688
85.1 1356.93005371094
86.1 152573.359375
87.1 9072.599609375
88.0 292.310729980469
88.9 26.4094772338867
89.0 228.850570678711
90.0 108.073219299316
91.0 2162.46948242188
92.0 424.534118652344
93.0 52.4469833374023
94.1 66.0453186035156
101.3 19.6884098052979
101.4 20.0011920928955
101.6 29.952917098999
102.4 30.1241855621338
102.9 326.824768066406
103.0 19.8397464752197
104.0 149.413146972656
105.0 339.057281494141
106.0 19.7040882110596
115.0 102.665222167969
116.0 19.4995384216309
116.9 71.8468246459961
118.0 119.396667480469
119.0 696.966918945313
120.0 557.719360351563
121.0 4580.77978515625
122.0 527.390991210938
130.9 171.157928466797
132.0 141.481750488281
132.9 180.781936645508
133.9 67.1243743896484
135.0 1472.49621582031
136.0 108.729507446289
145.0 44.2394485473633
145.9 70.626823425293
147.0 517.69384765625
148.0 237.094543457031
149.0 6494.7998046875
150.0 579.59375
158.9 20.7756481170654
159.9 137.671401977539
161.0 51.7128372192383
161.0 44.9741287231445
161.9 21.4939575195313
162.0 261.346496582031
163.0 94.3638000488281
164.0 65.9110336303711
174.0 20.3055057525635
175.0 266.17333984375
176.0 230.043075561523
177.0 172.007827758789
178.0 830.531555175781
179.0 41.5077056884766
188.0 81.9803237915039
190.0 368.457489013672
191.0 177.956787109375
192.0 191.158843994141
204.0 322.774017333984
205.0 22.5162506103516
206.0 314.287963867188
207.0 36.5435485839844
233.1 44.4279022216797
