#"+EI Scan (rt: 2.034-2.081 min, 9 scans) MIX1-9.D  Subtract "
#Point,X(Thompsons),Y(Counts)
41.0 498.210693359375
42.0 3821.24243164063
43.0 602.697265625
44.0 13640.251953125
45.0 408.048034667969
50.0 1099.22802734375
51.0 723.095153808594
52.0 75.5709915161133
52.9 88.1753845214844
54.0 142.35693359375
55.0 358.377990722656
56.0 2162.41064453125
57.0 443.512176513672
58.0 683.232055664063
60.9 68.4341583251953
61.9 38.267017364502
63.0 185.411010742188
64.9 43.4462089538574
68.0 118.089027404785
69.0 18.27317237854
70.0 3013.81079101563
71.1 430.874633789063
72.1 37335.8515625
73.1 2059.80786132813
73.9 38.5148582458496
74.0 614.193176269531
75.0 2810.52270507813
75.9 24.0816421508789
76.0 677.279602050781
77.0 774.467102050781
77.9 81.4459686279297
78.0 40.0626907348633
79.0 120.251251220703
84.0 57.9926300048828
84.9 376.445526123047
86.9 144.527114868164
89.0 213.958984375
90.9 18.7824020385742
91.0 154.170944213867
96.0 37.2936668395996
102.0 87.9004364013672
103.0 459.471282958984
104.0 110.584503173828
105.0 190.871856689453
109.9 19.8732643127441
110.0 16.9496879577637
111.0 3602.61181640625
111.9 388.927215576172
112.9 1319.37744140625
113.9 123.27742767334
115.0 207.521774291992
116.0 18.287670135498
117.0 42.0306396484375
119.0 36.0505485534668
124.9 337.3857421875
127.0 78.6678466796875
129.9 19.4051742553711
131.0 215.48161315918
131.9 25.9661254882813
133.0 417.321044921875
137.9 63.3583106994629
139.0 2232.68090820313
139.9 231.052795410156
140.9 728.432861328125
141.8 17.0979118347168
141.9 20.2341060638428
147.0 16.8152122497559
161.0 64.6474075317383
166.0 82.7584075927734
167.0 36.609260559082
168.0 297.513458251953
169.0 18.2829742431641
169.9 18.3031272888184
191.0 16.9633235931396
196.0 17.7182521820068
207.0 105.892272949219
208.9 0.806314468383789
