#"+EI Scan (rt: 3.194-3.241 min, 9 scans) MIX1-8.D  Subtract "
#Point,X(Thompsons),Y(Counts)
41.0 1107.98474121094
42.0 1702.80749511719
43.0 1380.04467773438
44.0 16042.58984375
45.0 480.028259277344
50.0 120.948905944824
51.0 218.145233154297
53.0 216.095794677734
54.0 37.3209800720215
55.0 330.534057617188
56.0 412.053894042969
57.0 146.417022705078
58.0 45.792236328125
60.9 21.104076385498
62.0 436.93310546875
63.0 1389.24926757813
64.0 185.908920288086
65.0 1898.52172851563
66.0 132.358062744141
68.0 58.9638862609863
69.0 40.2488212585449
70.0 935.707885742188
71.0 123.471084594727
74.0 40.1187477111816
77.0 201.703460693359
78.9 84.3920211791992
84.0 1317.25
85.1 220.11442565918
86.1 23164.513671875
87.1 1403.6787109375
89.0 38.4029846191406
91.0 990.711853027344
92.0 146.880554199219
93.0 99.13525390625
95.9 17.1724319458008
96.0 18.8586597442627
103.0 19.8178253173828
104.9 19.8039741516113
119.0 323.690490722656
119.9 103.853286743164
120.0 45.9683990478516
121.0 1549.58435058594
122.0 170.149917602539
135.0 120.643814086914
146.0 184.499572753906
147.0 136.920791625977
148.0 157.08332824707
149.0 2950.76440429688
150.0 459.597015380859
176.0 19.5839576721191
176.9 44.3426780700684
177.1 21.3604583740234
178.0 110.365692138672
192.0 148.891052246094
207.0 25.3994140625
208.0 31.1741943359375
