#"+EI Scan (rt: 1.999-2.040 min, 8 scans) MIX2-4.D  Subtract "
#Point,X(Thompsons),Y(Counts)
41.0 370.315612792969
42.0 2853.05615234375
43.0 522.73046875
44.0 11432.7880859375
45.0 389.352233886719
50.0 997.758605957031
51.0 726.666198730469
52.0 115.580322265625
53.0 167.389205932617
53.9 46.3258590698242
54.0 113.368179321289
55.0 346.113464355469
56.0 3153.37377929688
57.0 385.992004394531
58.0 2221.52954101563
59.0 70.2896499633789
59.1 21.980562210083
60.9 44.0306777954102
62.0 38.9170837402344
62.9 13.7317419052124
63.0 227.994613647461
64.9 182.41455078125
68.0 91.7747573852539
69.0 60.8719711303711
69.1 21.8037700653076
70.0 2230.46118164063
71.0 405.138977050781
72.1 32314.228515625
73.1 1777.12927246094
74.0 558.616027832031
75.0 2275.197265625
76.0 615.575622558594
77.0 779.237426757813
78.0 264.852325439453
79.0 204.367874145508
83.9 43.846809387207
84.9 374.833984375
86.9 129.979187011719
89.0 189.799133300781
91.0 200.993545532227
92.9 123.329467773438
101.0 23.0352478027344
102.0 73.5729675292969
103.0 459.813781738281
104.0 255.434768676758
105.0 241.303970336914
111.0 2882.01635742188
111.9 303.671813964844
113.0 1003.03668212891
113.9 77.9307250976563
115.0 352.377105712891
115.9 19.3494300842285
117.0 119.499488830566
118.9 94.9554214477539
124.9 201.240020751953
126.9 41.7366714477539
131.0 335.065216064453
132.0 215.511047363281
133.0 382.286315917969
134.9 76.5911636352539
135.0 9.13477611541748
138.9 1465.25036621094
139.9 161.637100219727
140.9 486.608673095703
141.9 19.7304840087891
144.0 19.6588134765625
145.0 21.0715217590332
146.0 129.708450317383
149.0 45.2785034179688
150.0 196.863464355469
150.9 192.554794311523
151.1 27.9928951263428
160.0 40.2761039733887
161.1 24.7330417633057
166.0 46.9606399536133
166.9 47.7998161315918
168.0 192.540878295898
191.0 5.33006858825684
196.0 27.6966819763184
207.0 75.6487426757813
208.0 52.0736618041992
208.9 22.9160118103027
