#"+EI Scan (rt: 2.763-2.809 min, 9 scans) MIX2-9.D  Subtract "
#Point,X(Thompsons),Y(Counts)
41.0 1200.52563476563
42.0 7289.64794921875
43.0 2063.53173828125
44.1 36779.6171875
45.0 1109.91760253906
50.0 769.899841308594
51.0 1457.99072265625
52.0 401.515808105469
53.0 1565.39489746094
54.0 452.81005859375
55.0 1158.91687011719
56.0 4611.01708984375
57.0 775.932006835938
58.0 229.169296264648
61.0 484.067321777344
62.0 2084.60034179688
63.0 6635.22412109375
64.0 1566.57775878906
65.0 13037.732421875
66.0 1103.75500488281
67.0 191.381286621094
68.0 337.452209472656
68.9 53.6603622436523
69.0 197.73616027832
70.0 5198.3740234375
71.1 1486.74670410156
72.1 150707.34375
73.1 7617.3623046875
74.0 725.501647949219
75.0 456.362030029297
76.0 372.945404052734
77.0 1100.00231933594
78.0 398.51220703125
78.9 34.4006462097168
79.0 438.387298583984
79.9 42.0611381530762
80.0 45.8093185424805
81.0 39.5029563903809
88.9 26.5981597900391
89.0 413.134643554688
90.0 316.280120849609
91.0 4504.59765625
92.0 1374.56921386719
93.0 739.78564453125
93.9 29.3076267242432
94.1 113.371925354004
94.9 23.4920120239258
95.0 136.408843994141
95.9 70.0131607055664
101.0 16.7532196044922
101.9 32.1066703796387
102.0 129.932510375977
102.1 28.2068042755127
103.0 505.247222900391
103.9 24.2888412475586
104.0 258.841613769531
105.0 365.461029052734
106.0 116.852378845215
107.0 409.993041992188
107.9 67.0485229492188
108.0 42.0520133972168
109.1 17.9411315917969
115.0 58.4980316162109
117.0 159.316879272461
118.0 291.216094970703
119.0 1151.7041015625
120.0 722.343383789063
121.0 3621.47631835938
121.9 26.7611618041992
122.0 1117.94970703125
123.0 180.306060791016
130.0 58.9277763366699
131.0 285.073150634766
131.9 16.8878536224365
132.0 195.553939819336
132.9 172.848907470703
134.0 137.914138793945
135.0 1816.77172851563
135.9 51.4981842041016
136.0 207.757751464844
143.9 17.402961730957
145.0 17.6488151550293
146.0 407.8681640625
147.0 562.630310058594
148.0 451.176574707031
149.0 15303.1845703125
150.0 1871.33630371094
151.0 331.978698730469
160.0 61.5407638549805
160.9 17.2139511108398
161.9 40.7334861755371
162.0 22.5028705596924
175.0 61.1532936096191
176.0 279.935424804688
177.0 226.734130859375
178.0 1756.06201171875
179.0 174.723007202148
190.0 44.6793060302734
204.0 79.7412490844727
205.0 18.9938068389893
205.1 59.4448089599609
206.0 166.234405517578
207.0 51.6055908203125
207.9 17.6934814453125
208.0 39.8036346435547
220.0 284.847320556641
221.0 50.215950012207
221.1 99.2602081298828
