#"+EI Scan (rt: 1.883-1.988 min, 19 scans) MIX3-10.D  Subtract "
#Point,X(Thompsons),Y(Counts)
41.0 331.941223144531
42.0 617.288391113281
43.0 157.515396118164
44.0 121.407592773438
49.9 191.838623046875
51.0 243.200759887695
52.9 34.2112770080566
54.0 8.92414474487305
54.9 20.4912414550781
55.0 122.609977722168
56.0 448.746459960938
57.0 745.16162109375
58.0 683.000244140625
62.0 77.2788314819336
63.0 365.635101318359
63.9 18.4807968139648
65.0 755.795349121094
69.9 18.5931034088135
70.0 553.885375976563
71.0 166.439453125
72.1 9225.357421875
73.0 86.3618392944336
73.1 455.121551513672
74.0 33.3235893249512
74.9 161.053268432617
75.9 8.56532669067383
77.0 105.08918762207
78.0 8.02413368225098
79.0 25.1228485107422
89.0 163.24348449707
90.0 36.5854225158691
90.9 18.0077342987061
91.0 909.335327148438
92.0 53.211986541748
95.9 78.1540985107422
105.0 104.390975952148
110.9 161.421585083008
111.0 9.87877178192139
112.8 8.13186740875244
112.9 8.61840438842773
115.1 12.344123840332
118.9 8.69123077392578
119.0 519.502014160156
120.0 17.8445148468018
121.0 334.149261474609
127.0 55.6760177612305
132.9 43.8558044433594
134.0 65.5720443725586
134.0 37.2633895874023
134.9 108.556327819824
135.1 9.37250232696533
136.0 5.13887023925781
138.9 239.836547851563
143.0 17.7273712158203
146.9 18.6239585876465
147.0 40.9626007080078
149.0 1042.84118652344
149.9 51.9793968200684
150.0 51.9255828857422
162.0 132.031768798828
171.9 8.63758277893066
190.9 7.9940299987793
192.0 34.0271186828613
207.0 83.541748046875
208.0 173.780700683594
209.0 17.1902523040771
