#"+EI Scan (rt: 2.087-2.139 min, 10 scans) MIX3-4.D  Subtract "
#Point,X(Thompsons),Y(Counts)
41.0 5100.5322265625
42.0 7597.21728515625
43.0 1332.98986816406
44.0 5711.849609375
45.0 205.587158203125
48.9 20.5257930755615
49.0 47.2094230651855
50.0 2785.822265625
51.0 1800.41735839844
52.0 254.20280456543
52.9 15.8395252227783
53.0 225.121246337891
54.0 735.160034179688
55.0 920.830505371094
56.0 5134.39404296875
57.0 13317.69921875
58.0 669.774536132813
60.9 267.890625
62.0 201.968536376953
63.0 447.799896240234
64.0 19.2320861816406
64.9 139.41569519043
68.0 435.732269287109
68.9 40.0364837646484
69.0 294.875396728516
70.0 7229.9658203125
71.1 1244.00122070313
72.1 120410.84375
73.1 6164.66015625
74.0 1620.09692382813
75.0 7400.5791015625
76.0 1780.02856445313
77.0 1334.18518066406
78.0 183.250823974609
78.9 15.9152355194092
79.1 19.4466495513916
83.9 203.50358581543
85.0 903.008483886719
85.9 167.734268188477
86.9 37.140697479248
87.0 347.731262207031
87.9 32.9323921203613
89.0 521.818298339844
90.0 75.5376510620117
91.0 276.583923339844
95.8 17.4912853240967
96.0 71.317268371582
96.9 15.4078159332275
98.9 111.729431152344
100.9 221.788848876953
101.9 188.018402099609
102.1 17.9377555847168
102.9 23.8072071075439
103.0 176.392608642578
104.0 166.602142333984
105.0 179.650177001953
109.9 245.725875854492
111.0 10922.392578125
112.0 1111.55773925781
113.0 3684.42529296875
113.9 377.819152832031
115.0 419.888977050781
115.9 127.584823608398
116.0 29.2702217102051
116.9 57.7627334594727
117.0 158.436965942383
118.0 115.264854431152
119.0 69.7854766845703
122.9 61.767261505127
125.0 717.536499023438
125.9 78.6846237182617
126.9 347.690521240234
128.0 196.663970947266
129.0 52.4537658691406
130.0 62.6745109558105
131.0 85.065299987793
131.8 18.5341911315918
132.0 86.4566192626953
132.9 25.1656303405762
133.0 81.0265960693359
135.0 97.7905502319336
135.9 111.880386352539
136.9 111.287170410156
138.0 146.734725952148
139.0 5821.7705078125
139.9 568.201416015625
140.9 1988.10681152344
141.9 136.793518066406
144.0 86.9975738525391
145.0 193.153656005859
146.0 288.411041259766
147.0 2009.34350585938
148.0 206.690582275391
148.9 98.9207992553711
151.0 65.4184722900391
151.9 128.762008666992
152.9 15.4073486328125
154.0 1033.94018554688
155.0 100.232643127441
156.0 305.271759033203
164.0 94.3882217407227
164.9 48.9763412475586
166.0 183.22004699707
166.9 213.578582763672
168.0 108.43009185791
168.9 20.4262924194336
169.0 61.7896499633789
180.0 166.169647216797
181.0 128.039932250977
182.0 1316.79565429688
183.0 168.691467285156
184.0 372.410583496094
184.9 17.2320346832275
207.0 47.3518676757813
208.0 18.0837554931641
208.9 84.8881378173828
