#"+EI Scan (rt: 2.116-2.180 min, 12 scans) MIX4-9.D  Subtract "
#Point,X(Thompsons),Y(Counts)
41.0 487.016662597656
42.0 548.502563476563
43.0 321.917327880859
45.0 14.404842376709
47.0 67.1791610717773
50.0 235.244201660156
51.0 531.3291015625
52.0 82.0791320800781
53.0 202.26237487793
54.0 28.8431701660156
55.0 315.592987060547
56.0 2434.880859375
57.0 668.119873046875
58.1 15598.763671875
59.0 626.987548828125
61.9 43.1808319091797
63.0 312.697479248047
63.9 42.4268836975098
65.0 707.978759765625
69.0 12.8654088973999
70.0 11.5012340545654
71.0 344.511810302734
73.9 43.8915252685547
75.0 1096.39245605469
75.9 12.607837677002
76.0 48.4665031433105
77.0 1224.43249511719
78.0 357.762603759766
79.0 576.375915527344
84.9 50.7747688293457
85.0 227.048477172852
86.0 206.326507568359
89.0 659.469787597656
90.0 104.362617492676
91.0 1970.06469726563
92.0 147.072799682617
95.9 14.0148057937622
101.9 46.8635406494141
103.0 554.191833496094
103.9 29.2926273345947
104.0 146.890518188477
105.0 1345.58581542969
106.0 174.111068725586
114.9 88.074104309082
115.0 99.5104446411133
115.9 13.0093011856079
116.0 13.2002372741699
116.9 62.5487365722656
118.2 12.8702516555786
119.0 6180.90185546875
120.0 653.95361328125
121.0 27.5969104766846
128.0 27.4399318695068
128.9 64.1804046630859
129.1 15.173020362854
131.0 170.980773925781
131.1 26.0726490020752
133.0 904.7734375
134.0 186.862670898438
148.0 68.3009948730469
161.0 14.6191892623901
191.0 172.381851196289
207.0 30.906005859375
208.0 27.2606201171875
