#"+EI Scan (rt: 2.955-3.001 min, 9 scans) MIX4-8.D  Subtract "
#Point,X(Thompsons),Y(Counts)
41.0 508.599273681641
42.0 4271.95849609375
43.0 682.475402832031
44.0 3155.12548828125
45.0 224.782608032227
50.0 381.034820556641
51.0 575.766540527344
52.0 155.50244140625
53.0 565.839782714844
54.0 302.010467529297
55.0 945.204833984375
56.0 3385.44311523438
57.0 1499.62854003906
58.0 359.101898193359
60.9 28.64013671875
61.0 154.456024169922
62.0 1058.65466308594
63.0 3060.67578125
64.0 438.933349609375
65.0 3410.06665039063
66.0 272.457794189453
69.0 19.2000484466553
70.1 2466.9482421875
71.1 1039.49389648438
72.1 79134.3359375
73.1 3968.8818359375
74.0 306.371368408203
75.0 90.9243469238281
75.9 134.492782592773
76.9 26.582914352417
77.0 457.893463134766
78.0 100.993827819824
79.0 209.31510925293
81.0 17.8486957550049
89.0 169.656707763672
90.0 45.5068969726563
91.0 1719.08544921875
91.9 220.568115234375
92.0 48.5881538391113
93.0 85.2796936035156
96.0 31.1306915283203
101.8 40.0854949951172
102.9 84.8497772216797
103.9 60.7138862609863
104.9 184.618408203125
105.0 8.52092742919922
117.9 84.0788497924805
119.0 683.933410644531
120.0 324.535675048828
121.0 2210.50048828125
121.9 386.90478515625
132.9 93.2127075195313
133.9 17.5326690673828
135.0 994.020263671875
135.9 18.762996673584
136.0 52.6969146728516
145.9 60.7044677734375
147.0 230.831481933594
148.0 177.080688476563
149.0 2859.70434570313
149.9 275.384124755859
159.9 84.3357391357422
162.0 214.668762207031
163.0 16.8573532104492
164.0 2040.15014648438
164.9 26.5651016235352
165.0 185.01806640625
175.9 24.5697193145752
176.0 143.285217285156
176.9 146.828567504883
178.0 405.150207519531
190.0 99.2984848022461
190.1 24.1241569519043
190.9 73.8114624023438
204.0 18.874662399292
207.0 78.7449340820313
207.9 23.0883102416992
209.0 21.3095779418945
