#"+EI Scan (rt: 2.955-3.002 min, 9 scans) MIX4-5.D  Subtract "
#Point,X(Thompsons),Y(Counts)
41.0 527.934020996094
42.0 4453.8837890625
43.0 743.923767089844
44.0 3116.84887695313
45.0 224.685485839844
50.0 376.421173095703
51.0 591.756530761719
52.0 143.095809936523
53.0 534.979370117188
54.0 300.832611083984
55.0 956.959655761719
56.0 3358.76025390625
57.0 1469.88525390625
58.0 271.61474609375
60.9 171.529403686523
62.0 1084.46313476563
63.0 2965.53881835938
64.0 405.028930664063
65.0 3357.7001953125
66.0 272.591400146484
67.0 17.467342376709
70.1 2457.63427734375
71.1 1007.17413330078
72.1 78455.1171875
73.1 3959.98779296875
73.9 76.0593566894531
74.0 214.661056518555
74.9 100.304313659668
75.9 84.9156341552734
76.0 18.0777168273926
77.0 444.335083007813
78.0 113.610153198242
79.0 206.077209472656
89.0 201.023666381836
89.9 60.3228416442871
91.0 1804.18627929688
92.0 269.364288330078
93.0 69.9746475219727
95.9 72.9279098510742
103.0 63.8579902648926
103.9 17.6358795166016
104.0 35.4472846984863
105.0 127.011566162109
105.1 46.7349548339844
117.9 105.012496948242
118.9 22.5435581207275
119.0 629.0595703125
120.0 307.292816162109
121.0 2163.53979492188
122.0 346.137145996094
127.0 42.8360214233398
132.8 21.7515392303467
133.0 54.1825866699219
134.0 17.6310997009277
135.0 933.218872070313
136.0 63.7599220275879
145.9 19.5393295288086
146.9 74.5986862182617
147.0 167.877380371094
148.0 132.647109985352
148.1 21.821361541748
149.0 2733.65576171875
149.9 248.179626464844
155.0 17.983814239502
159.9 19.1188278198242
160.0 28.0016422271729
161.9 19.2240581512451
162.0 187.66748046875
164.0 1955.90124511719
165.0 224.873962402344
171.9 16.9070625305176
172.0 17.9226894378662
175.9 21.1745338439941
176.0 130.724197387695
177.0 111.284362792969
178.0 339.259887695313
189.9 56.6344451904297
190.0 75.3496856689453
191.0 47.0315399169922
204.0 40.9280471801758
208.0 16.488639831543
