#"+EI Scan (rt: 4.721-4.762 min, 8 scans) MIX4-6.D  Subtract "
#Point,X(Thompsons),Y(Counts)
40.0 142.224151611328
41.0 10999.9296875
42.0 8074.35400390625
43.0 3871.02368164063
44.0 924.950500488281
50.0 431.852996826172
51.0 977.23046875
52.0 387.06884765625
53.0 1373.49633789063
54.0 4143.6103515625
55.0 8674.1640625
56.0 4874.49267578125
57.0 1139.87768554688
58.0 46.0569877624512
61.9 252.427688598633
63.0 1424.28369140625
63.9 19.3161735534668
64.0 448.802703857422
65.0 8079.86767578125
66.0 671.834411621094
67.0 1082.30590820313
68.0 2920.33154296875
69.1 9296.9677734375
70.1 4783.2275390625
71.0 603.921264648438
72.0 18.9429740905762
72.0 478.825897216797
73.0 45.3601913452148
73.1 21.9894371032715
73.9 72.6818084716797
75.0 153.253479003906
76.0 140.813629150391
77.0 1004.29742431641
78.0 380.753509521484
79.0 591.617309570313
80.0 984.109252929688
81.0 788.268432617188
82.0 1531.07824707031
83.0 826.959899902344
84.1 10470.3369140625
85.0 760.629638671875
85.9 45.7347602844238
86.0 182.561218261719
87.0 21.3316879272461
89.0 2323.66943359375
90.0 1401.21179199219
91.0 18717.35546875
92.0 1879.94995117188
93.0 417.215667724609
94.0 1235.26525878906
95.0 789.314880371094
96.1 10948.0029296875
97.1 8045.9072265625
98.1 4415.8330078125
99.0 296.640350341797
101.9 113.614410400391
103.0 527.73876953125
104.0 255.042572021484
105.0 2443.283203125
106.0 299.350952148438
107.9 20.6533451080322
108.0 571.523559570313
109.0 162.977478027344
109.1 20.8220672607422
110.1 4940.27734375
111.1 620.953308105469
112.1 466.382171630859
113.1 19.3157634735107
115.0 1144.38220214844
116.0 541.216125488281
117.0 743.797607421875
118.0 589.975463867188
119.0 14457.6162109375
120.0 1487.65808105469
121.0 60.6210861206055
122.0 126.673835754395
124.0 283.456237792969
127.0 296.546081542969
128.0 571.820434570313
129.0 555.874877929688
130.0 476.486724853516
131.0 695.532165527344
132.0 268.200073242188
133.0 217.344131469727
134.0 1666.86181640625
135.0 263.019714355469
136.0 898.641174316406
137.0 81.8985977172852
137.1 79.2228088378906
138.1 7222.2197265625
139.2 2028.60534667969
140.1 351624.03125
141.1 36005.5234375
142.1 1815.48510742188
143.0 286.746948242188
144.0 385.293762207031
144.9 23.1808948516846
145.0 638.272705078125
146.0 272.138488769531
147.0 618.767761230469
148.0 42.6226921081543
154.0 19.496410369873
155.0 77.9663696289063
156.0 50.9071731567383
157.0 103.305511474609
158.0 112.165084838867
159.0 381.440643310547
160.0 156.255752563477
167.0 64.2978363037109
167.1 25.8139972686768
170.0 59.8713684082031
171.0 23.4575786590576
172.0 262.116638183594
173.0 309.455474853516
174.1 2232.4755859375
175.1 383.529602050781
184.0 133.920837402344
186.0 479.997344970703
187.1 222.554718017578
188.0 170.656372070313
198.1 104.657691955566
200.1 449.738830566406
201.1 71.3842010498047
202.1 1624.86987304688
203.1 308.041107177734
207.0 34.680908203125
208.0 61.2488479614258
209.0 19.6073951721191
214.1 129.877075195313
228.1 332.401763916016
257.1 243.171463012695
258.1 185.254730224609
