#"+EI Scan (rt: 2.285-2.326 min, 8 scans) MIX7-7.D  Subtract "
#Point,X(Thompsons),Y(Counts)
41.0 1995.37023925781
42.0 807.381774902344
43.0 1275.18896484375
44.0 2196.31958007813
45.0 63.2995071411133
46.0 177.570190429688
50.0 479.127105712891
51.0 1707.16613769531
52.0 179.555252075195
53.0 146.499755859375
54.0 238.698913574219
55.0 602.026062011719
56.0 2642.34448242188
57.0 624.955078125
58.1 6681.7158203125
59.0 206.876388549805
65.0 104.307838439941
67.0 169.174423217773
68.0 53.4261093139648
68.0 159.245681762695
69.0 1129.10119628906
70.0 913.441284179688
71.0 780.495910644531
72.0 797.104797363281
73.0 106.206085205078
74.0 42.4680862426758
74.9 95.7186431884766
76.0 223.811233520508
77.0 5032.626953125
78.0 561.42431640625
79.0 391.487915039063
82.0 100.069549560547
84.1 1007.84777832031
85.0 108.96849822998
85.9 20.7745399475098
86.0 99.9138031005859
88.9 45.6515197753906
89.1 55.0023193359375
91.0 621.597229003906
95.9 10.781888961792
96.0 31.0183525085449
98.0 54.7515640258789
103.0 227.701950073242
104.0 207.717620849609
105.0 3040.60083007813
106.0 473.848785400391
107.0 21.161169052124
112.1 1379.06311035156
113.1 248.919021606445
114.1 53195.45703125
115.1 4621.16796875
116.0 262.427917480469
117.0 208.943542480469
118.0 146.753662109375
120.0 103.062721252441
120.1 23.9837284088135
128.0 42.5519599914551
128.9 21.6005229949951
130.0 19.5226917266846
131.0 47.1526412963867
132.0 101.962509155273
132.1 24.5240383148193
133.0 422.775329589844
134.0 1178.67175292969
135.0 121.104476928711
135.1 22.114465713501
146.0 143.00358581543
147.0 19.7248954772949
148.0 21.1684417724609
162.0 322.693389892578
162.1 332.068267822266
163.0 95.7372894287109
207.0 86.1171875
208.0 56.3345489501953
209.0 19.6464290618896
