#"+EI Scan (rt: 1.772-1.813 min, 8 scans) 3-METHYLETHCATH-6.D  Subtract "
#Point,X(Thompsons),Y(Counts)
40.0 222.641632080078
41.0 1950.92944335938
42.0 9076.623046875
43.0 1767.33764648438
44.1 41385.7890625
45.0 1293.50744628906
50.0 888.687622070313
51.0 1709.5576171875
52.0 594.33740234375
53.0 444.702514648438
53.9 20.972806930542
54.0 333.360687255859
55.0 1010.34826660156
56.0 4845.83544921875
57.0 740.126281738281
58.9 23.9121437072754
60.9 46.9914665222168
62.0 682.691589355469
63.0 2707.28173828125
64.0 852.757263183594
65.0 9194.4189453125
66.0 575.0830078125
67.0 19.6336803436279
68.0 329.946563720703
69.0 119.773330688477
70.1 7126.40869140625
71.1 1243.03430175781
72.1 150563
73.1 7552.171875
74.0 415.519256591797
75.0 310.616180419922
76.0 261.766204833984
77.0 1120.97399902344
78.0 352.295166015625
79.0 217.427230834961
79.7 19.9892539978027
85.9 90.6259765625
87.0 152.744476318359
88.0 24.2806205749512
89.0 3089.15771484375
90.0 1291.98278808594
91.0 14587.7275390625
92.0 1523.6953125
93.0 419.530639648438
102.0 143.341354370117
103.0 486.126251220703
104.0 259.74951171875
105.0 1129.85778808594
106.0 80.9222717285156
115.0 786.287109375
116.0 245.146530151367
117.0 701.735900878906
118.0 436.113006591797
118.1 64.7685699462891
119.0 6659.5048828125
120.0 832.787414550781
121.0 21.1923046112061
127.0 23.3441848754883
128.0 178.803558349609
129.0 159.427139282227
130.0 257.905487060547
131.0 558.131591796875
132.0 198.001663208008
133.0 395.353332519531
144.0 120.511016845703
145.1 19.5011577606201
146.0 901.440551757813
147.0 533.858154296875
148.1 1281.03198242188
149.0 115.634506225586
158.0 220.446502685547
160.0 221.149795532227
161.0 47.3365821838379
163.0 163.040283203125
173.1 19.808443069458
174.0 136.441040039063
175.0 82.9084243774414
175.9 19.7882442474365
176.0 326.121765136719
190.0 69.5013122558594
191.0 41.4232559204102
