#"+EI Scan (rt: 1.577-1.659 min, 15 scans) R5M1.D  Subtract "
#Point,X(Thompsons),Y(Counts)
40.0900 438.067932128906
41.0652 7462.46728515625
42.0900 1237.78942871094
43.0800 7620.037109375
44.0158 798.330810546875
45.0600 112.924407958984
45.9400 88.5973129272461
46.0962 18.674919128418
46.8400 30.3373222351074
46.9740 33.1735534667969
48.8026 32.0767707824707
49.1400 29.1937828063965
50.0246 118.658920288086
51.0100 782.506408691406
51.9750 353.688293457031
52.1068 148.236053466797
53.0384 2260.45849609375
54.0150 521.729370117188
55.0564 3511.80712890625
58.0603 257.675170898438
58.1500 85.4116439819336
59.0461 8223.052734375
60.0052 86.4232177734375
60.1200 33.6598167419434
60.8173 50.2010459899902
61.8300 73.997673034668
61.9981 78.5122985839844
62.8700 77.3433990478516
62.9636 360.411773681641
63.9471 313.399810791016
64.0716 20.1367073059082
65.0287 2138.70141601563
66.0219 752.015625
66.1200 195.15119934082
67.0581 4543.4345703125
68.0683 2208.15258789063
69.0539 2034.16796875
71.0844 301.954345703125
72.0523 4139.697265625
73.0600 481.3701171875
74.0700 450.972564697266
75.0099 28.4727783203125
75.1100 110.53498840332
75.9976 238.26481628418
76.1354 387.007690429688
77.0316 6239.06640625
78.0345 1990.564453125
79.0400 4415.5556640625
79.9600 328.550384521484
80.0642 878.093200683594
81.0100 2513.9326171875
81.9508 464.370513916016
82.0326 254.866760253906
82.9600 93.1548080444336
83.0550 17.179443359375
83.9300 183.880523681641
86.0392 1037.59814453125
86.8900 195.308685302734
87.0062 130.477355957031
87.8332 65.6097869873047
88.0339 176.883026123047
88.0964 63.6156311035156
89.0158 1166.89013671875
89.8800 176.889297485352
90.0942 339.568084716797
91.0482 9780.150390625
91.9583 161.463821411133
92.0741 1038.14428710938
93.0700 4148.89208984375
94.0154 1053.67749023438
94.1100 73.1306610107422
94.9761 317.715179443359
95.0563 834.00390625
96.0900 278.71630859375
96.9400 99.0043258666992
97.8500 30.9117794036865
97.9800 364.825408935547
99.0100 784.948059082031
100.0452 329.675415039063
100.1600 144.106384277344
100.5000 41.6276245117188
100.6400 30.6311931610107
100.7700 216.090606689453
100.9346 392.859771728516
101.2800 25.9710369110107
101.8900 287.196868896484
102.0205 720.83740234375
102.9900 1527.10510253906
103.0745 898.84423828125
104.0100 455.043151855469
104.1169 384.139617919922
105.0500 5459.02978515625
106.0211 846.043640136719
106.1000 577.594787597656
107.0600 7804.27001953125
107.9716 557.556701660156
108.0513 1422.75256347656
109.0200 1772.25732421875
109.9918 417.553039550781
111.0500 311.38134765625
111.8857 104.324066162109
112.0154 61.0010986328125
113.0258 124.437133789063
114.0172 832.647888183594
114.1600 165.280990600586
115.0287 5916.763671875
115.9222 37.3301696777344
116.0519 1464.6337890625
117.0300 2400.2275390625
117.9829 374.111846923828
118.1200 256.267974853516
119.0459 7659.28466796875
119.8538 72.6361999511719
120.0196 956.947448730469
120.1000 370.002563476563
121.0697 5216.01611328125
121.9254 14.1300048828125
122.0500 1326.72509765625
122.0924 1408.88122558594
123.0236 4121.52587890625
123.9200 192.798126220703
124.0151 1782.63562011719
125.0024 135.644439697266
125.1500 65.9788665771484
125.7700 34.5194435119629
125.9875 212.228088378906
126.1582 60.3260650634766
127.0109 735.158752441406
127.0803 1217.18298339844
128.0481 5728.6015625
129.0175 2474.02587890625
129.0900 549.927368164063
130.0200 1114.68920898438
131.0142 3125.53637695313
131.9630 233.947967529297
132.0394 722.069702148438
133.0137 2507.396484375
134.0099 545.606689453125
134.0909 3253.54565429688
135.0135 2063.16137695313
135.8900 88.8932800292969
135.9944 1004.78186035156
136.0728 1286.38830566406
137.0100 4227.74609375
137.9900 643.40771484375
139.0015 775.501220703125
139.9797 188.028594970703
140.0862 244.173706054688
141.0135 2696.73413085938
142.0300 1159.72863769531
142.1300 315.734344482422
142.9100 94.3504638671875
143.0226 1180.63989257813
143.9033 110.816452026367
144.0158 1031.13952636719
144.1248 43.3881759643555
144.9924 1394.51220703125
145.0500 1815.96008300781
146.0384 768.87158203125
147.0405 4379.6484375
148.0406 1351.90222167969
148.9100 115.91641998291
149.0147 1986.46813964844
150.0300 1235.3203125
150.0989 497.715972900391
151.0162 911.288452148438
151.9840 638.256958007813
152.0600 1990.36096191406
152.9776 499.228454589844
153.0634 1613.75146484375
154.0244 932.517944335938
154.1032 58.2348327636719
155.0155 1144.1484375
155.9754 150.619934082031
156.0930 225.848693847656
157.0071 1607.8974609375
158.0262 1214.0830078125
158.9900 2188.26953125
159.9752 2089.14868164063
161.0175 4062.24365234375
161.9197 26.318567276001
162.0300 1003.15515136719
162.9567 1555.58032226563
163.9116 154.606964111328
164.0400 464.416656494141
164.9510 200.80859375
165.0488 3635.36108398438
165.9519 495.818908691406
166.0772 457.002075195313
167.0035 971.939697265625
167.7600 43.3447875976563
167.9532 579.930236816406
168.0419 147.458160400391
168.2047 6.28560256958008
169.0192 1157.13830566406
169.8200 45.4205169677734
169.9681 575.547058105469
170.0914 234.77131652832
171.0100 2264.13232421875
172.0256 742.728271484375
172.1800 42.2337837219238
173.0600 4298.8359375
174.0500 13965.7763671875
175.0600 5757.33935546875
176.0211 904.955749511719
176.1000 766.227722167969
177.0494 1064.45544433594
178.0497 1881.49438476563
178.9052 11.4595794677734
179.0335 1035.23950195313
179.9088 25.6524887084961
180.0100 390.426483154297
180.0800 168.166122436523
181.0400 2798.38916015625
182.0118 595.946899414063
182.0700 731.079406738281
183.0531 2669.22631835938
184.0082 888.713562011719
184.1500 109.734352111816
184.9754 1331.2255859375
186.0206 1095.11096191406
186.1300 64.9534683227539
187.0256 5845.8056640625
188.0467 3161.435546875
188.9789 649.778198242188
189.0804 5287.61767578125
189.9596 103.078155517578
190.0600 2827.09838867188
191.0300 2010.95678710938
191.8600 122.47159576416
192.0304 380.558441162109
193.0889 17288.76171875
194.0534 2249.60668945313
194.1300 324.010437011719
194.9925 1531.400390625
195.9985 478.892425537109
196.1100 73.7689361572266
196.9852 1700.58850097656
197.8945 64.207763671875
198.0377 728.38525390625
198.9983 2183.04931640625
200.0395 1576.67150878906
201.0500 9685.732421875
202.0583 2433.40063476563
202.2400 43.3324737548828
202.9869 971.474792480469
203.0900 817.018493652344
203.9849 221.078552246094
204.1022 105.37784576416
204.1600 124.650321960449
204.9728 375.400329589844
205.0600 151.839065551758
205.7945 11.3580322265625
205.9300 33.5063629150391
206.0366 168.648345947266
206.1800 95.4733428955078
206.9000 143.67366027832
207.0361 1004.60192871094
207.8703 49.4195404052734
208.1252 202.688568115234
208.9605 233.370819091797
209.0722 246.8173828125
209.1802 205.490631103516
209.7200 23.2781543731689
209.9837 219.029754638672
210.1077 102.589500427246
211.0005 782.52490234375
212.0700 1877.90454101563
213.0419 2315.662109375
214.0655 1983.37316894531
214.9900 3268.23828125
215.9767 560.888671875
216.9986 1086.26977539063
217.8300 64.1286392211914
217.9422 66.9482116699219
218.0775 276.256622314453
218.9505 542.939453125
219.9858 516.851318359375
220.9287 177.985046386719
221.0356 81.9347229003906
221.8598 172.324996948242
222.0950 44.7718353271484
222.9691 346.883361816406
223.0600 163.147567749023
223.8631 25.3525543212891
223.9929 133.092147827148
224.0900 155.766830444336
224.9892 170.956756591797
225.0900 208.970672607422
225.6600 42.3450927734375
225.8200 19.3658123016357
226.0200 297.846160888672
226.1234 120.306587219238
226.2700 69.4434509277344
227.0800 1027.71960449219
227.1800 79.8948593139648
227.6800 12.5699043273926
227.9991 200.7744140625
228.1565 297.026123046875
229.0370 1941.56958007813
230.0042 278.051666259766
230.1200 660.681701660156
231.1293 82943.703125
231.9900 74.1517639160156
232.1290 13692.5673828125
233.0074 3900.9736328125
233.9833 411.451904296875
234.9900 98.9844970703125
235.8000 63.1559906005859
236.9751 435.7119140625
237.9000 545.484741210938
239.0100 934.814331054688
239.8927 85.6905059814453
240.0267 112.215362548828
240.1400 58.5141105651855
240.9838 538.866821289063
241.9391 199.522079467773
242.0505 149.663101196289
242.1400 238.945663452148
242.9900 259.415679931641
243.0900 2720.65014648438
243.1800 810.211242675781
244.0000 120.658836364746
244.1203 898.124694824219
245.1194 5418.359375
246.1388 8266.4951171875
246.2000 840.965759277344
246.9275 37.1808624267578
247.1200 1658.85998535156
247.8300 32.7961578369141
248.0244 147.801055908203
248.1500 42.8995475769043
248.2900 26.3603649139404
248.9441 11.1225128173828
249.0984 215.459991455078
249.7500 13.6457071304321
249.9100 41.8319320678711
250.0700 10.4300842285156
250.8100 95.3752822875977
251.1600 36.2135276794434
252.6400 28.7074909210205
252.7700 27.2051067352295
253.0809 555.62109375
253.9800 145.693786621094
254.1200 62.3838386535645
254.6900 32.7438545227051
255.0700 737.548767089844
255.2300 46.8946075439453
255.7400 14.9142332077026
256.0400 190.994537353516
256.1600 113.999099731445
257.0618 1462.12829589844
257.1300 2373.45629882813
258.1500 23599.82421875
259.1400 9779.9814453125
259.9900 93.3697738647461
260.1294 1513.69641113281
261.0290 74.3101654052734
261.1700 165.844284057617
261.9100 11.7789640426636
262.0200 11.319299697876
262.8964 45.6287307739258
263.1197 0.992366790771484
263.9000 63.0948028564453
264.0600 172.461669921875
264.2400 40.5341720581055
264.7300 12.0480699539185
264.8761 48.9588508605957
265.0106 62.3201484680176
265.2100 18.6623458862305
265.9400 10.3406887054443
266.0660 2.29972839355469
266.7700 125.444206237793
266.9200 141.180038452148
268.0277 16.4855709075928
268.8400 83.4734191894531
269.0474 317.545043945313
269.1700 122.543846130371
269.9486 107.37427520752
270.0713 209.075637817383
270.1900 20.415901184082
271.1595 21003.654296875
272.1502 7076.61865234375
273.0567 1840.95422363281
274.0800 115.875160217285
274.2000 24.4651012420654
274.9253 116.820022583008
275.8100 17.1644477844238
275.9246 149.823867797852
276.0910 2.94983863830566
276.8267 216.026885986328
276.9146 64.3869018554688
277.8400 92.3546447753906
277.9838 30.5326843261719
278.5900 24.3448104858398
278.9989 287.658630371094
279.3300 18.2093410491943
279.7900 43.7314338684082
279.9158 13.115234375
280.9400 363.243041992188
281.7311 22.4138717651367
281.9013 131.008407592773
282.0700 47.4036712646484
282.6637 22.4902667999268
282.9008 66.7746429443359
283.0472 157.194549560547
283.8800 10.1582174301147
284.0200 13.0769567489624
284.9867 551.7568359375
285.8300 19.9733257293701
286.0893 295.868286132813
286.2326 63.3609466552734
286.8546 4.38252258300781
286.9999 2.72100830078125
287.1500 172.406997680664
287.9581 69.7311019897461
288.9700 78.831787109375
290.0483 308.040222167969
290.8538 237.403182983398
292.0200 152.610946655273
292.9600 724.8173828125
293.8500 219.139083862305
295.0100 529.670043945313
295.9052 13.7457733154297
296.0900 140.717864990234
296.2200 11.8398180007935
297.0300 832.826171875
297.1300 174.926696777344
297.5300 14.6267871856689
297.9800 212.815078735352
298.0900 72.8255996704102
298.2300 27.620080947876
299.1499 5146.20458984375
299.9152 76.172119140625
300.1700 1093.39172363281
300.3600 33.5248374938965
300.8387 18.486515045166
301.1023 39.1670913696289
301.9400 15.2658348083496
302.8500 19.0030918121338
302.9757 38.5915374755859
304.8458 8.75279808044434
305.1500 45.5242538452148
306.7700 23.7683143615723
306.9349 157.610473632813
307.3400 11.1840953826904
307.7300 23.0603199005127
308.7600 30.5172691345215
308.8600 41.1425323486328
308.9927 53.8811645507813
309.8000 13.6295480728149
310.1300 12.6242628097534
311.0200 159.972229003906
311.1100 95.5789031982422
311.2437 20.3832359313965
311.9474 43.4505310058594
312.1100 138.313247680664
313.0838 132.211044311523
313.1900 343.624450683594
314.2098 32048.115234375
315.2002 7661.56591796875
315.9600 47.5733222961426
316.1100 298.667449951172
316.2100 643.445922851563
317.0400 55.9427833557129
317.1700 47.9815559387207
318.8100 17.2563171386719
323.1100 36.4517555236816
325.3400 17.2960910797119
325.9300 16.5973472595215
326.2300 14.1570301055908
326.6700 30.0155544281006
326.9020 59.2550468444824
327.8600 23.1648597717285
328.1400 75.5961227416992
328.2800 16.9678630828857
328.8400 30.9663963317871
328.9600 89.6139297485352
329.0700 44.308349609375
329.2600 12.253116607666
329.8700 10.3799982070923
330.7260 11.6358184814453
330.8718 46.7410125732422
331.9500 13.8332624435425
332.7769 16.2170562744141
332.9139 1.2252311706543
334.7400 62.6186027526855
335.7900 15.0416116714478
337.0500 11.0770626068115
341.0200 42.9230995178223
344.5400 13.6797647476196
344.9387 36.0339965820313
345.1000 36.4838829040527
346.8700 13.9760932922363
347.1700 25.3470249176025
349.0214 180.928375244141
350.0316 16.3793296813965
350.9262 19.9086227416992
351.0356 16.5418090820313
351.1900 32.5209503173828
351.4000 21.2305316925049
352.6400 30.20578956604
353.0332 60.6081008911133
353.9200 23.7191028594971
354.0600 15.68128490448
356.9198 10.9881763458252
357.0400 20.9946117401123
361.0000 17.8995342254639
362.9377 9.26088333129883
363.1200 37.894229888916
364.1200 10.6156730651855
365.0700 27.184211730957
366.7000 19.32590675354
369.1000 14.6797609329224
370.8100 44.4592437744141
376.9500 10.6157331466675
378.9500 12.6788387298584
383.1200 10.2147884368896
385.0100 10.6422023773193
387.1700 33.9686660766602
400.7900 15.8037414550781
400.9000 54.301456451416
401.0294 3.04432678222656
401.8700 11.1014423370361
408.5300 10.9024105072021
408.8500 12.8904266357422
408.9800 25.0570640563965
414.8000 10.5555086135864
461.0900 13.3028364181519
