#"+EI Scan (rt: 1.876-1.923 min, 9 scans) MIX1-1b.D  Subtract "
#Point,X(Thompsons),Y(Counts)
41.0 1616.11206054688
42.0 5972.87255859375
43.0 3528
44.0 360.14697265625
44.9 19.5251846313477
45.0 84.3746185302734
50.0 1666.23425292969
51.0 3425.22216796875
52.0 928.432739257813
53.0 1138.47863769531
54.0 715.4169921875
55.0 1298.36047363281
56.0 24314.64453125
57.0 4218.9345703125
58.1 232279.65625
59.1 8927.0849609375
60.0 101.137016296387
60.9 49.1905250549316
62.0 598.880004882813
63.0 2437.73583984375
64.0 791.940673828125
65.0 1720.26171875
65.9 21.4533824920654
66.0 218.044250488281
71.0 38.7600975036621
71.8 17.0885524749756
72.9 81.7184906005859
73.0 39.4360542297363
74.0 583.119384765625
75.0 768.469482421875
76.0 1080.80395507813
77.0 9136.265625
78.0 2591.94360351563
79.0 6216.86279296875
80.1 472.418823242188
86.0 111.821601867676
86.9 50.3134460449219
87.1 163.237823486328
87.7 18.1915817260742
87.9 54.1792411804199
88.0 23.6560478210449
89.0 3749.15795898438
90.0 2699.67749023438
91.0 2817.57470703125
92.0 300.258605957031
95.9 20.4965972900391
96.0 57.2225608825684
101.0 127.488632202148
102.0 1068.92138671875
103.0 5214.02001953125
104.0 1682.60888671875
105.0 4617.91552734375
106.0 682.848571777344
107.0 19.1203136444092
115.0 935.816711425781
116.0 343.681640625
117.0 676.486145019531
118.0 326.890075683594
119.0 1208.67346191406
120.0 166.199066162109
126.9 108.718711853027
128.0 321.045532226563
129.0 206.338531494141
130.0 312.549041748047
131.0 485.791656494141
132.0 496.053649902344
133.0 5987.59619140625
134.0 782.692687988281
135.0 43.620662689209
142.9 16.7303810119629
143.0 18.3334217071533
143.9 24.9918060302734
144.0 302.913452148438
145.0 146.729705810547
146.0 511.82666015625
147.0 710.257141113281
148.0 1173.90075683594
157.0 18.628210067749
158.0 163.770355224609
159.0 16.7823104858398
160.0 784.234924316406
161.0 376.802612304688
162.0 257.721527099609
172.1 17.6180572509766
173.0 41.9905128479004
173.1 18.5538597106934
174.0 138.530456542969
175.0 250.418533325195
176.1 414.719879150391
189.0 57.1279716491699
190.1 20.9553813934326
191.0 121.519248962402
191.1 17.866849899292
