#"+EI Scan (rt: 2.034-2.081 min, 9 scans) MIX1-1b.D  Subtract "
#Point,X(Thompsons),Y(Counts)
41.0 456.859100341797
42.0 3821.900390625
43.0 595.453002929688
44.0 13273.2109375
45.0 454.577514648438
50.0 1161.18359375
51.0 734.408752441406
52.0 56.5485191345215
53.0 94.5440979003906
54.0 134.484481811523
55.0 383.511810302734
56.0 2308.44970703125
57.0 414.064331054688
58.0 711.201293945313
60.9 61.4798164367676
62.0 73.5694580078125
62.9 180.944396972656
64.9 59.5688629150391
67.9 21.3169021606445
68.0 47.3930587768555
70.1 3055.26171875
71.0 457.9638671875
72.1 37476.6015625
73.1 2045.33056640625
74.0 626.582580566406
75.0 2728.64770507813
76.0 666.475891113281
77.0 754.539306640625
77.9 104.28971862793
79.0 131.791656494141
83.9 17.4395313262939
84.9 364.764709472656
86.9 111.788619995117
89.0 231.142364501953
91.0 212.345886230469
96.0 6.2730827331543
100.9 17.0325889587402
102.0 103.588836669922
103.0 444.317535400391
104.0 124.063232421875
105.0 207.240219116211
110.0 39.6176223754883
111.0 3629.876953125
111.9 348.050231933594
113.0 1292.22485351563
113.9 103.177040100098
115.0 183.272323608398
116.0 19.9927024841309
117.0 24.3712539672852
119.0 69.8189849853516
125.0 292.926177978516
127.0 48.1125640869141
130.0 17.2906589508057
131.0 209.848190307617
133.0 443.074890136719
138.0 41.7472686767578
138.9 2199.90649414063
139.9 224.94319152832
140.9 734.461181640625
141.9 19.169563293457
161.0 38.7839622497559
166.0 97.0453796386719
166.9 42.7741317749023
167.9 27.9355697631836
168.0 269.118194580078
170.0 17.7783393859863
186.0 23.822093963623
191.0 19.3120441436768
196.0 19.1185970306396
207.0 57.8510131835938
208.1 23.2271919250488
