#"+EI Scan (rt: 2.034-2.081 min, 9 scans) MIX1-3.D  Subtract "
#Point,X(Thompsons),Y(Counts)
41.0 421.877624511719
42.0 3845.99584960938
43.0 636.558715820313
44.0 13742.587890625
45.0 436.055114746094
50.0 1097.92041015625
51.0 737.277648925781
52.0 68.4196624755859
52.9 73.837776184082
53.0 22.0822219848633
54.0 159.266967773438
55.0 375.085235595703
56.0 2336.80908203125
57.0 382.875274658203
58.0 838.188293457031
60.9 79.0358123779297
61.9 43.3531227111816
63.0 174.521835327148
65.0 58.7284736633301
68.0 84.9270401000977
69.0 38.1694145202637
70.0 3065.40600585938
71.0 414.59765625
72.1 37910.07421875
73.1 2105.4423828125
74.0 656.586975097656
75.0 2794.92944335938
76.0 675.733947753906
77.0 809.60595703125
77.9 110.84423828125
78.0 24.4601039886475
79.0 114.574401855469
83.9 17.2565402984619
84.0 61.6210784912109
85.0 352.47021484375
86.9 111.891296386719
89.0 247.941467285156
91.0 238.587463378906
96.0 37.9499206542969
102.0 71.9816970825195
103.0 446.050811767578
104.0 90.4293823242188
104.9 76.6131057739258
105.0 155.182556152344
110.0 19.9442253112793
111.0 3606.79614257813
111.9 359.314727783203
113.0 1282.19970703125
113.9 144.780715942383
115.0 223.937393188477
116.0 19.2718315124512
116.9 40.5870780944824
118.9 35.3570709228516
124.9 340.765258789063
126.9 36.450798034668
127.0 87.4756164550781
131.0 200.153793334961
132.0 16.8896865844727
133.0 456.287963867188
137.9 21.0165004730225
139.0 2157.44604492188
140.0 243.347869873047
140.9 760.7587890625
141.9 57.1845359802246
146.9 35.6012496948242
161.0 73.8231735229492
166.0 111.020896911621
166.9 64.5152206420898
168.0 268.644378662109
169.9 81.9457092285156
186.1 16.7312831878662
196.0 17.1401786804199
207.0 81.9783935546875
207.9 30.9936218261719
209.0 6.88211441040039
