#"+EI Scan (rt: 3.194-3.241 min, 9 scans) MIX1-6.D  Subtract "
#Point,X(Thompsons),Y(Counts)
41.0 1113.5009765625
42.0 1685.46240234375
43.0 1440.17626953125
44.0 16743.75
45.0 474.447052001953
50.0 136.418670654297
51.0 250.38232421875
51.9 17.5811557769775
53.0 249.251052856445
54.0 35.9630279541016
55.0 272.290588378906
56.0 426.923309326172
57.0 137.440490722656
58.0 62.216911315918
61.0 56.7494659423828
62.0 420.617797851563
63.0 1438.69030761719
64.0 220.795532226563
65.0 1994.06213378906
66.0 114.044486999512
66.9 17.4887847900391
68.0 76.1164627075195
69.0 19.2944412231445
70.0 942.122375488281
71.0 97.5540771484375
71.0 77.5245590209961
73.9 23.7198352813721
74.0 18.9071273803711
77.0 131.693252563477
78.9 84.8443908691406
84.0 1156.5166015625
85.1 234.733474731445
86.1 24289.470703125
87.1 1467.0380859375
88.9 39.5340423583984
91.0 1049.76171875
92.0 161.000411987305
93.0 105.412200927734
96.0 24.5288772583008
102.9 18.4576358795166
104.9 34.8328399658203
105.1 19.0575141906738
118.9 395.180908203125
119.9 172.73811340332
121.0 1602.55725097656
122.0 231.256729125977
135.0 92.38818359375
146.0 165.289474487305
147.0 166.520202636719
148.0 131.867431640625
149.0 3094.80151367188
150.0 484.049102783203
176.9 18.8118553161621
177.0 48.3468818664551
177.9 20.1902141571045
178.0 95.5394439697266
192.0 142.935729980469
