#"+EI Scan (rt: 2.769-2.809 min, 8 scans) MIX2-10.D  Subtract "
#Point,X(Thompsons),Y(Counts)
41.0 1263.45971679688
42.0 7960.75244140625
43.0 2214.80541992188
44.1 40541.43359375
45.0 1159.5947265625
50.0 849.61669921875
51.0 1611.87219238281
52.0 458.85498046875
53.0 1641.86157226563
54.0 481.495147705078
55.0 1201.56713867188
56.0 5107.365234375
57.0 739.897338867188
58.0 296.321533203125
61.0 577.644470214844
62.0 2209.140625
63.0 7240.10498046875
64.0 1713.41479492188
65.0 14339.6962890625
66.0 1209.71984863281
67.0 202.094909667969
68.0 381.301422119141
69.0 258.843078613281
70.0 5666.94384765625
71.1 1593.53369140625
72.1 167917.078125
73.1 8361.3193359375
74.0 783.240661621094
75.0 514.742980957031
76.0 417.479644775391
77.0 1269.31982421875
77.9 65.2572631835938
78.0 360.524505615234
79.0 512.17578125
80.0 112.738098144531
80.9 97.4603576660156
88.0 21.729829788208
89.0 495.622680664063
90.0 366.832305908203
91.0 4872.4150390625
92.0 1545.2666015625
93.0 784.485778808594
94.0 114.325950622559
94.1 35.657657623291
94.9 150.43376159668
95.1 24.3560161590576
95.9 29.5230770111084
100.9 20.0051193237305
102.0 191.974044799805
103.0 578.321899414063
104.0 336.937316894531
105.0 294.373504638672
105.9 24.8858776092529
106.0 80.9825286865234
106.9 429.191925048828
107.9 29.3631782531738
107.9 56.3635063171387
109.1 19.6114959716797
115.0 86.6209564208984
115.1 18.9129867553711
117.0 121.513626098633
117.8 19.7317924499512
118.0 276.359130859375
119.0 1304.01745605469
120.0 831.75537109375
121.0 3980.787109375
122.0 1276.9140625
122.9 189.416152954102
127.9 61.13818359375
129.9 47.1852378845215
130.9 160.370010375977
131.0 178.777801513672
132.0 228.714096069336
133.0 232.164123535156
134.0 101.930290222168
135.0 2036.74780273438
136.0 245.310394287109
144.0 40.2197227478027
146.0 418.707855224609
147.0 586.144165039063
148.0 542.069580078125
149.0 16715.419921875
150.0 2048.36352539063
151.0 304.201141357422
151.0 22.4824485778809
159.0 20.1603965759277
160.0 90.3684921264648
162.0 83.7711334228516
162.9 19.659086227417
175.0 53.4362258911133
176.0 343.34130859375
177.0 254.22200012207
178.0 1871.5625
179.0 213.332672119141
190.0 49.1959533691406
192.0 24.4441547393799
204.0 56.0472717285156
205.1 20.0997753143311
206.0 199.741607666016
207.0 37.26220703125
220.0 353.815612792969
221.0 153.740417480469
