#"+EI Scan (rt: 1.772-1.813 min, 8 scans) MIX3-2.D  Subtract "
#Point,X(Thompsons),Y(Counts)
41.0 844.46240234375
42.0 4654.40478515625
43.0 1380.91284179688
44.1 131577.046875
45.1 3629.89306640625
48.9 25.0270099639893
49.0 80.9317779541016
50.0 2739.62451171875
51.0 10586.986328125
52.0 2160.65454101563
53.0 1867.509765625
54.0 493.556854248047
55.0 308.819122314453
56.0 2263.69091796875
57.0 421.459045410156
58.4 25.9358234405518
58.5 101.872085571289
60.9 183.890228271484
62.0 999.4814453125
63.0 2075.11596679688
64.0 525.618103027344
65.0 1342.15380859375
66.0 462.428955078125
67.0 525.517883300781
67.1 99.8580780029297
68.0 86.9125289916992
73.0 358.933746337891
74.0 734.9091796875
75.0 756.62255859375
76.0 1319.47778320313
77.0 12437.0849609375
78.0 4803.15771484375
79.0 2749.75512695313
80.0 671.427917480469
81.5 3568.97778320313
86.0 19.0279369354248
87.0 98.7153472900391
88.9 903.613098144531
90.0 255.027770996094
91.0 925.285827636719
92.0 262.5439453125
93.0 295.754211425781
94.0 118.747367858887
102.0 359.562591552734
103.0 1302.19470214844
104.0 1379.28759765625
105.0 3498.93969726563
106.0 3286.05786132813
107.0 1111.3935546875
108.0 94.0622787475586
114.9 21.694221496582
115.0 25.6472415924072
116.0 197.873031616211
117.0 259.46044921875
118.0 394.80859375
119.0 237.551223754883
120.0 413.158264160156
121.0 680.46923828125
122.0 201.083114624023
130.0 19.5221786499023
131.0 553.127014160156
132.0 210.678131103516
132.9 18.9733428955078
133.0 411.247131347656
134.0 1188.7265625
135.0 21028.5859375
136.0 46345.921875
137.0 4008.6015625
138.0 329.944671630859
138.9 38.9644355773926
144.9 42.3378562927246
145.9 51.8732948303223
147.0 317.350433349609
148.0 454.707366943359
149.0 46.0698547363281
159.9 43.9388389587402
160.9 21.2593002319336
161.0 163.318832397461
162.0 362.895202636719
162.9 28.2011375427246
163.0 585.00927734375
164.0 898.272644042969
165.0 57.7235565185547
175.9 26.5839939117432
176.0 90.4351501464844
176.9 83.4648590087891
177.0 248.919357299805
178.0 460.374908447266
179.0 1188.84033203125
179.1 35.9433135986328
180.0 93.9046173095703
191.0 330.126739501953
207.0 29.2924194335938
237.1 21.1234855651855
