#"+EI Scan (rt: 1.894-1.993 min, 18 scans) MIX3-9.D  Subtract "
#Point,X(Thompsons),Y(Counts)
41.0 314.412322998047
42.0 556.345153808594
43.0 264.418212890625
44.0 271.202270507813
50.0 209.797866821289
51.0 140.59455871582
52.9 8.47145175933838
54.0 8.34293937683105
55.0 146.617309570313
56.0 316.752716064453
56.0 180.534149169922
57.0 626.432861328125
58.0 705.715637207031
61.9 73.2419357299805
63.0 383.108642578125
64.0 18.9352436065674
65.0 768.782958984375
69.0 9.91127490997314
70.0 520.821411132813
71.0 152.55485534668
71.1 14.764536857605
72.1 9592.12109375
73.0 551.048767089844
73.9 28.4933700561523
75.0 176.11653137207
77.0 83.7099456787109
77.9 10.1067247390747
79.0 8.99615955352783
89.0 169.114410400391
89.9 61.4232864379883
90.9 44.4062347412109
91.0 924.273193359375
92.0 67.7372360229492
95.8 9.02614879608154
104.9 19.4939365386963
105.0 78.4598159790039
110.9 142.091735839844
112.9 9.10743618011475
113.0 17.6622505187988
115.0 64.0764617919922
117.1 8.88798713684082
119.0 507.033355712891
120.0 20.2551536560059
121.0 496.561401367188
126.9 25.8799381256104
127.1 9.8535041809082
133.9 10.6400747299194
134.0 92.8190383911133
134.9 87.2616348266602
135.0 32.4881744384766
138.9 105.19344329834
145.0 9.58173751831055
147.0 54.3364715576172
149.0 1367.87377929688
149.9 142.578475952148
160.0 8.68393611907959
162.0 128.6630859375
191.9 37.0601272583008
208.0 127.492584228516
208.9 8.60403060913086
