#"+EI Scan (rt: 1.784-1.830 min, 9 scans) MIX4-3.D  Subtract "
#Point,X(Thompsons),Y(Counts)
41.0 2267.27758789063
42.0 8894.3701171875
43.0 2391.52734375
44.0 27051.087890625
45.0 751.112365722656
48.9 17.2519283294678
50.0 1736.70178222656
51.0 6418.4697265625
52.0 741.276184082031
53.0 530.119873046875
54.0 691.284545898438
55.0 3740.52001953125
56.0 4656.791015625
57.0 5656.03662109375
58.0 4145.77001953125
59.0 138.543182373047
61.9 125.832153320313
63.0 380.674072265625
64.0 41.7935638427734
65.0 347.362030029297
66.0 41.1241836547852
67.0 93.8699569702148
68.0 542.474365234375
69.0 272.969329833984
70.0 3040.33813476563
71.0 693.117431640625
72.0 84.7131652832031
72.1 17.4123592376709
73.0 122.59366607666
74.0 504.802398681641
75.0 549.450500488281
76.0 868.456848144531
77.0 14789.2255859375
78.0 1634.20629882813
79.0 403.201568603516
80.1 18.2118148803711
82.0 99.4703674316406
82.1 17.5022029876709
83.0 64.7840423583984
84.1 5887.38671875
85.0 74.7498626708984
85.1 620.38818359375
86.1 111604.375
87.1 6770.11865234375
88.0 189.981643676758
89.0 381.750305175781
90.0 106.768524169922
91.0 1072.35168457031
92.0 73.9902420043945
95.9 2.59275436401367
96.0 38.3875198364258
101.9 20.367733001709
102.0 104.990600585938
103.0 494.214630126953
104.0 295.529937744141
105.0 6717.123046875
106.0 702.912109375
107.0 60.9930419921875
110.9 137.388442993164
115.0 516.823974609375
116.0 146.934768676758
117.0 283.844848632813
118.0 352.074157714844
118.9 70.6700668334961
119.1 27.976053237915
120.0 1145.52111816406
121.0 131.393203735352
127.0 136.643371582031
127.9 21.3708686828613
128.0 209.733810424805
128.9 81.1748428344727
129.9 19.5665817260742
130.0 316.594879150391
131.0 258.597778320313
132.0 246.916641235352
133.0 901.212463378906
134.0 277.057403564453
138.8 30.3072509765625
139.0 93.0440292358398
140.9 38.7333717346191
144.0 122.606391906738
145.0 84.3361206054688
146.0 370.616088867188
147.0 268.670654296875
148.0 2509.94409179688
149.0 377.806915283203
150.0 18.4035015106201
158.0 20.3995361328125
160.0 71.10400390625
161.0 19.2464485168457
162.0 71.6021728515625
169.9 17.6744136810303
170.0 32.2036437988281
171.0 42.6292114257813
172.0 60.3659744262695
174.0 20.8217849731445
191.0 18.6663856506348
207.0 111.015869140625
208.0 33.6884460449219
208.9 37.869270324707
