#"+EI Scan (rt: 3.497-3.544 min, 9 scans) EUTYLONE-8.D  Subtract "
#Point,X(Thompsons),Y(Counts)
40.0 87.6168365478516
41.1 13326.55859375
42.0 2737.05029296875
43.0 2391.43334960938
44.0 2604.64892578125
45.0 166.894714355469
50.0 827.576354980469
51.0 1368.84814453125
52.0 407.775238037109
53.0 1416.33264160156
54.0 1004.49761962891
55.0 1155.17175292969
56.0 9850.3486328125
57.0 944.058349609375
58.1 19875.5859375
59.0 778.316528320313
59.9 20.8595333099365
61.0 414.321228027344
62.0 2431.30908203125
63.0 8207.19921875
64.0 1226.16186523438
65.0 11231.69140625
66.0 850.388427734375
67.0 310.662414550781
68.0 547.617858886719
69.0 481.688140869141
70.1 3561.19384765625
71.1 874.467041015625
72.0 19.162956237793
74.0 513.321350097656
75.0 277.368774414063
75.0 21.6711883544922
76.0 384.162872314453
77.0 1181.61889648438
78.0 322.378051757813
78.9 18.5320224761963
79.0 613.100158691406
80.0 95.9588088989258
81.1 18.0870761871338
81.9 87.5918426513672
82.1 53.4439544677734
83.0 39.1032295227051
84.1 5652.4609375
85.1 1473.13488769531
86.1 217136.921875
87.1 13188.2744140625
88.1 407.883270263672
89.0 406.835723876953
90.0 271.746765136719
91.0 3875.69311523438
91.9 20.0555076599121
92.0 764.875427246094
93.0 687.101684570313
93.9 22.413158416748
94.2 68.0253143310547
94.4 118.995552062988
94.7 34.313591003418
95.0 97.3904724121094
95.1 39.075023651123
101.9 27.8981857299805
102.0 119.919464111328
102.1 17.8235664367676
103.0 585.291076660156
104.0 266.666412353516
105.0 464.226287841797
106.0 57.2185745239258
115.0 208.439193725586
116.0 71.7871017456055
117.0 163.148452758789
117.9 56.8417510986328
118.0 116.607368469238
119.0 1030.91748046875
120.0 921.512023925781
121.0 9778.7705078125
122.0 1266.98303222656
123.0 160.7978515625
130.0 120.028106689453
131.0 281.307403564453
131.9 28.6417026519775
132.0 215.23307800293
133.0 240.81217956543
134.0 93.4221649169922
135.0 1940.89501953125
136.0 176.420349121094
144.9 115.852874755859
145.1 17.3485984802246
145.9 136.35710144043
147.0 547.770629882813
148.0 928.097778320313
149.0 14453.630859375
150.0 1564.08984375
151.0 170.557403564453
158.0 37.7460136413574
159.0 62.6624946594238
160.0 300.582733154297
161.0 271.976501464844
162.0 252.810409545898
163.0 160.395965576172
163.9 22.5972270965576
164.0 99.4675445556641
174.0 121.495590209961
175.0 185.547729492188
176.0 1102.19140625
176.9 83.8563003540039
177.0 505.925720214844
178.1 2009.87170410156
179.0 252.776931762695
188.0 73.7543640136719
189.0 36.6561660766602
190.0 316.771911621094
191.0 160.013977050781
192.0 480.655334472656
202.0 175.214385986328
204.0 103.604316711426
205.0 35.5027198791504
206.0 1212.5068359375
207.0 144.62028503418
217.0 91.2215728759766
219.0 36.4869842529297
219.1 20.2871608734131
