#"+EI Scan (rt: 3.497-3.544 min, 9 scans) EUTYLONE-10.D  Subtract "
#Point,X(Thompsons),Y(Counts)
41.0 13364.990234375
42.1 2658.35205078125
43.0 2401.20068359375
44.0 2700.25170898438
45.0 135.086181640625
50.0 759.260559082031
51.0 1406.87976074219
52.0 361.57421875
53.0 1387.07849121094
54.0 979.869812011719
55.0 1125.63598632813
56.0 9673.94921875
57.0 976.668701171875
58.1 20137.9921875
59.0 768.691040039063
61.0 438.597778320313
62.0 2480.03173828125
63.0 8367.3291015625
64.0 1312.70642089844
65.0 11326.767578125
66.0 913.834533691406
66.9 25.7512187957764
67.0 299.485504150391
68.0 537.363525390625
69.0 456.078247070313
70.1 3539.06689453125
71.0 870.316467285156
73.9 17.5373687744141
74.0 474.934356689453
75.0 284.622100830078
76.0 360.923309326172
77.0 1188.54895019531
78.0 378.323303222656
79.0 615.266662597656
79.9 81.0894470214844
80.1 24.4335174560547
82.0 48.8205146789551
82.1 117.233032226563
83.0 57.5275611877441
84.1 5626.30908203125
85.1 1428.63623046875
86.1 219189.625
87.1 13257.1181640625
88.1 423.413208007813
89.0 414.920074462891
90.0 276.676116943359
91.0 3927.63232421875
92.0 783.646850585938
93.0 644.074829101563
94.1 18.2140502929688
94.3 100.775573730469
94.5 36.395435333252
94.7 22.0331974029541
94.9 58.9360275268555
95.0 133.779312133789
102.0 105.779190063477
102.1 23.4375457763672
103.0 567.154296875
103.1 20.9044742584229
104.0 315.083984375
105.0 456.107574462891
106.0 60.4628295898438
107.0 18.1452198028564
115.0 214.645431518555
116.0 56.229850769043
116.9 144.609741210938
117.1 20.05615234375
118.0 169.976013183594
119.0 1033.43603515625
120.0 928.814331054688
121.0 10039.73828125
122.0 1298.65551757813
122.9 190.567535400391
130.0 103.371604919434
131.0 279.436157226563
132.0 233.514678955078
133.0 231.605056762695
134.0 95.0645904541016
135.0 1858.826171875
136.0 182.165390014648
145.0 140.119903564453
146.0 137.573608398438
147.0 516.683410644531
148.0 976.600341796875
149.0 14490.509765625
150.0 1564.66943359375
151.0 146.500885009766
158.0 45.18896484375
159.0 59.1002349853516
160.0 303.275024414063
161.0 260.797485351563
162.0 273.505218505859
163.0 179.455123901367
164.0 90.365478515625
174.0 151.172088623047
175.0 175.162780761719
176.0 1137.21362304688
176.9 72.6055068969727
177.0 503.892364501953
178.1 1975.63256835938
179.0 92.5027542114258
179.0 130.650253295898
188.0 80.4318542480469
189.0 73.7118225097656
190.0 336.051391601563
191.0 156.182678222656
192.0 461.0576171875
193.0 18.0431442260742
202.0 166.750228881836
204.0 71.627555847168
204.9 36.1903266906738
206.1 1233.11743164063
207.0 159.993728637695
217.0 99.6549377441406
219.0 18.6855545043945
